摘要
[样品信息]
类型:,测定数据
数据集名:,RawData
样品名称
样品ID
选项
分析者
创建日期和时间:,2025/12/27 15:17:17
注释
参数文件名:,ZBB-SNN-200-500.vspm
报告文件名
[软件信息]
软件名称:,LabSolutions UV-Vis
版本:,1.14
[仪器信息]
仪器名称:,UV2600
仪器类型:,UV-2600 系列
型号(S/N):,UV2600 (A12596132769)

测定参数
[测定]
开始(nm):,500 nm
结束(nm):,200 nm
数据间隔(nm):,0.2
扫描速度:,中速
光度值类型:,吸收值
[附件]
附件:,无
[高级设置]
狭缝宽度:,2.0
检测器单元:,直接
光源转换波长:,323
S/R切换:,标准
阶梯校正:,ON
[重复]
重复测定:,OFF
[后处理]
光谱转换:,OFF
数据处理表:,OFF
打印:,OFF

波长(nm),吸收值
200.0,0.045
200.2,0.045
200.4,0.045
200.6,0.046
200.8,0.043
201.0,0.041
201.2,0.042
201.4,0.042
201.6,0.041
201.8,0.041
202.0,0.042
202.2,0.041
202.4,0.039
202.6,0.040
202.8,0.042
203.0,0.043
203.2,0.042
203.4,0.043
203.6,0.043
203.8,0.043
204.0,0.042
204.2,0.042
204.4,0.043
204.6,0.044
204.8,0.043
205.0,0.043
205.2,0.044
205.4,0.045
205.6,0.044
205.8,0.043
206.0,0.043
206.2,0.042
206.4,0.043
206.6,0.044
206.8,0.045
207.0,0.046
207.2,0.047
207.4,0.045
207.6,0.043
207.8,0.045
208.0,0.044
208.2,0.043
208.4,0.044
208.6,0.044
208.8,0.043
209.0,0.043
209.2,0.044
209.4,0.044
209.6,0.044
209.8,0.044
210.0,0.045
210.2,0.045
210.4,0.046
210.6,0.045
210.8,0.044
211.0,0.043
211.2,0.043
211.4,0.041
211.6,0.043
211.8,0.043
212.0,0.044
212.2,0.045
212.4,0.045
212.6,0.045
212.8,0.045
213.0,0.045
213.2,0.045
213.4,0.046
213.6,0.046
213.8,0.048
214.0,0.049
214.2,0.049
214.4,0.049
214.6,0.049
214.8,0.049
215.0,0.050
215.2,0.051
215.4,0.051
215.6,0.052
215.8,0.053
216.0,0.053
216.2,0.054
216.4,0.056
216.6,0.058
216.8,0.059
217.0,0.060
217.2,0.062
217.4,0.063
217.6,0.063
217.8,0.064
218.0,0.064
218.2,0.065
218.4,0.065
218.6,0.065
218.8,0.065
219.0,0.067
219.2,0.066
219.4,0.068
219.6,0.067
219.8,0.067
220.0,0.067
220.2,0.067
220.4,0.067
220.6,0.067
220.8,0.067
221.0,0.067
221.2,0.067
221.4,0.066
221.6,0.066
221.8,0.066
222.0,0.066
222.2,0.066
222.4,0.066
222.6,0.065
222.8,0.065
223.0,0.064
223.2,0.064
223.4,0.063
223.6,0.063
223.8,0.063
224.0,0.062
224.2,0.062
224.4,0.062
224.6,0.061
224.8,0.061
225.0,0.060
225.2,0.060
225.4,0.060
225.6,0.060
225.8,0.060
226.0,0.060
226.2,0.059
226.4,0.059
226.6,0.059
226.8,0.058
227.0,0.058
227.2,0.058
227.4,0.057
227.6,0.057
227.8,0.056
228.0,0.056
228.2,0.056
228.4,0.055
228.6,0.055
228.8,0.054
229.0,0.054
229.2,0.053
229.4,0.052
229.6,0.052
229.8,0.051
230.0,0.050
230.2,0.050
230.4,0.049
230.6,0.049
230.8,0.048
231.0,0.048
231.2,0.047
231.4,0.046
231.6,0.046
231.8,0.046
232.0,0.045
232.2,0.045
232.4,0.044
232.6,0.044
232.8,0.044
233.0,0.043
233.2,0.043
233.4,0.043
233.6,0.042
233.8,0.042
234.0,0.042
234.2,0.042
234.4,0.042
234.6,0.041
234.8,0.041
235.0,0.041
235.2,0.041
235.4,0.041
235.6,0.041
235.8,0.041
236.0,0.041
236.2,0.041
236.4,0.041
236.6,0.041
236.8,0.041
237.0,0.040
237.2,0.040
237.4,0.040
237.6,0.040
237.8,0.040
238.0,0.040
238.2,0.040
238.4,0.040
238.6,0.040
238.8,0.040
239.0,0.040
239.2,0.040
239.4,0.040
239.6,0.040
239.8,0.040
240.0,0.040
240.2,0.040
240.4,0.040
240.6,0.040
240.8,0.040
241.0,0.040
241.2,0.040
241.4,0.040
241.6,0.040
241.8,0.040
242.0,0.040
242.2,0.040
242.4,0.040
242.6,0.040
242.8,0.040
243.0,0.040
243.2,0.040
243.4,0.040
243.6,0.040
243.8,0.040
244.0,0.040
244.2,0.040
244.4,0.040
244.6,0.040
244.8,0.040
245.0,0.040
245.2,0.041
245.4,0.041
245.6,0.041
245.8,0.041
246.0,0.041
246.2,0.041
246.4,0.041
246.6,0.041
246.8,0.041
247.0,0.042
247.2,0.042
247.4,0.042
247.6,0.042
247.8,0.042
248.0,0.042
248.2,0.043
248.4,0.043
248.6,0.043
248.8,0.043
249.0,0.043
249.2,0.044
249.4,0.044
249.6,0.044
249.8,0.044
250.0,0.044
250.2,0.045
250.4,0.045
250.6,0.045
250.8,0.045
251.0,0.045
251.2,0.046
251.4,0.046
251.6,0.046
251.8,0.046
252.0,0.046
252.2,0.047
252.4,0.047
252.6,0.047
252.8,0.047
253.0,0.048
253.2,0.048
253.4,0.048
253.6,0.048
253.8,0.049
254.0,0.049
254.2,0.049
254.4,0.049
254.6,0.050
254.8,0.050
255.0,0.050
255.2,0.050
255.4,0.051
255.6,0.051
255.8,0.051
256.0,0.051
256.2,0.052
256.4,0.052
256.6,0.052
256.8,0.052
257.0,0.053
257.2,0.053
257.4,0.053
257.6,0.053
257.8,0.054
258.0,0.054
258.2,0.054
258.4,0.054
258.6,0.054
258.8,0.055
259.0,0.055
259.2,0.055
259.4,0.055
259.6,0.056
259.8,0.056
260.0,0.056
260.2,0.056
260.4,0.056
260.6,0.057
260.8,0.057
261.0,0.057
261.2,0.057
261.4,0.057
261.6,0.058
261.8,0.058
262.0,0.058
262.2,0.058
262.4,0.058
262.6,0.059
262.8,0.059
263.0,0.059
263.2,0.059
263.4,0.059
263.6,0.059
263.8,0.059
264.0,0.060
264.2,0.060
264.4,0.060
264.6,0.060
264.8,0.060
265.0,0.060
265.2,0.060
265.4,0.060
265.6,0.060
265.8,0.061
266.0,0.061
266.2,0.061
266.4,0.061
266.6,0.061
266.8,0.061
267.0,0.061
267.2,0.061
267.4,0.061
267.6,0.061
267.8,0.061
268.0,0.061
268.2,0.061
268.4,0.061
268.6,0.061
268.8,0.061
269.0,0.061
269.2,0.061
269.4,0.061
269.6,0.061
269.8,0.061
270.0,0.061
270.2,0.061
270.4,0.061
270.6,0.061
270.8,0.061
271.0,0.061
271.2,0.061
271.4,0.061
271.6,0.061
271.8,0.061
272.0,0.061
272.2,0.061
272.4,0.061
272.6,0.061
272.8,0.061
273.0,0.060
273.2,0.060
273.4,0.060
273.6,0.060
273.8,0.060
274.0,0.060
274.2,0.060
274.4,0.059
274.6,0.059
274.8,0.059
275.0,0.059
275.2,0.059
275.4,0.059
275.6,0.059
275.8,0.058
276.0,0.058
276.2,0.058
276.4,0.058
276.6,0.058
276.8,0.058
277.0,0.057
277.2,0.057
277.4,0.057
277.6,0.057
277.8,0.056
278.0,0.056
278.2,0.056
278.4,0.056
278.6,0.056
278.8,0.055
279.0,0.055
279.2,0.055
279.4,0.055
279.6,0.054
279.8,0.054
280.0,0.054
280.2,0.054
280.4,0.053
280.6,0.053
280.8,0.053
281.0,0.052
281.2,0.052
281.4,0.052
281.6,0.052
281.8,0.051
282.0,0.051
282.2,0.051
282.4,0.051
282.6,0.050
282.8,0.050
283.0,0.050
283.2,0.049
283.4,0.049
283.6,0.049
283.8,0.048
284.0,0.048
284.2,0.048
284.4,0.047
284.6,0.047
284.8,0.047
285.0,0.046
285.2,0.046
285.4,0.046
285.6,0.046
285.8,0.045
286.0,0.045
286.2,0.045
286.4,0.044
286.6,0.044
286.8,0.044
287.0,0.043
287.2,0.043
287.4,0.043
287.6,0.042
287.8,0.042
288.0,0.042
288.2,0.042
288.4,0.041
288.6,0.041
288.8,0.041
289.0,0.040
289.2,0.040
289.4,0.040
289.6,0.039
289.8,0.039
290.0,0.039
290.2,0.038
290.4,0.038
290.6,0.038
290.8,0.037
291.0,0.037
291.2,0.037
291.4,0.037
291.6,0.036
291.8,0.036
292.0,0.036
292.2,0.035
292.4,0.035
292.6,0.035
292.8,0.035
293.0,0.034
293.2,0.034
293.4,0.034
293.6,0.033
293.8,0.033
294.0,0.033
294.2,0.033
294.4,0.032
294.6,0.032
294.8,0.032
295.0,0.031
295.2,0.031
295.4,0.031
295.6,0.030
295.8,0.030
296.0,0.030
296.2,0.030
296.4,0.029
296.6,0.029
296.8,0.029
297.0,0.029
297.2,0.028
297.4,0.028
297.6,0.028
297.8,0.028
298.0,0.027
298.2,0.027
298.4,0.027
298.6,0.027
298.8,0.026
299.0,0.026
299.2,0.026
299.4,0.026
299.6,0.026
299.8,0.025
300.0,0.025
300.2,0.025
300.4,0.025
300.6,0.025
300.8,0.024
301.0,0.024
301.2,0.024
301.4,0.024
301.6,0.023
301.8,0.023
302.0,0.023
302.2,0.023
302.4,0.023
302.6,0.022
302.8,0.022
303.0,0.022
303.2,0.022
303.4,0.022
303.6,0.022
303.8,0.021
304.0,0.021
304.2,0.021
304.4,0.021
304.6,0.021
304.8,0.021
305.0,0.021
305.2,0.020
305.4,0.020
305.6,0.020
305.8,0.020
306.0,0.020
306.2,0.020
306.4,0.020
306.6,0.020
306.8,0.019
307.0,0.019
307.2,0.019
307.4,0.019
307.6,0.019
307.8,0.019
308.0,0.019
308.2,0.018
308.4,0.018
308.6,0.018
308.8,0.018
309.0,0.018
309.2,0.018
309.4,0.018
309.6,0.018
309.8,0.017
310.0,0.017
310.2,0.017
310.4,0.017
310.6,0.017
310.8,0.017
311.0,0.017
311.2,0.017
311.4,0.016
311.6,0.016
311.8,0.016
312.0,0.016
312.2,0.016
312.4,0.016
312.6,0.016
312.8,0.016
313.0,0.016
313.2,0.016
313.4,0.015
313.6,0.015
313.8,0.015
314.0,0.015
314.2,0.015
314.4,0.015
314.6,0.015
314.8,0.015
315.0,0.015
315.2,0.015
315.4,0.014
315.6,0.014
315.8,0.014
316.0,0.014
316.2,0.014
316.4,0.014
316.6,0.014
316.8,0.014
317.0,0.014
317.2,0.014
317.4,0.014
317.6,0.014
317.8,0.013
318.0,0.013
318.2,0.013
318.4,0.013
318.6,0.013
318.8,0.013
319.0,0.013
319.2,0.013
319.4,0.013
319.6,0.013
319.8,0.013
320.0,0.013
320.2,0.013
320.4,0.013
320.6,0.012
320.8,0.012
321.0,0.012
321.2,0.012
321.4,0.012
321.6,0.012
321.8,0.012
322.0,0.012
322.2,0.012
322.4,0.012
322.6,0.012
322.8,0.012
323.0,0.012
323.2,0.012
323.4,0.012
323.6,0.012
323.8,0.012
324.0,0.012
324.2,0.011
324.4,0.011
324.6,0.011
324.8,0.011
325.0,0.011
325.2,0.011
325.4,0.011
325.6,0.011
325.8,0.011
326.0,0.011
326.2,0.011
326.4,0.011
326.6,0.011
326.8,0.011
327.0,0.011
327.2,0.011
327.4,0.011
327.6,0.011
327.8,0.010
328.0,0.010
328.2,0.010
328.4,0.010
328.6,0.010
328.8,0.010
329.0,0.010
329.2,0.010
329.4,0.010
329.6,0.010
329.8,0.010
330.0,0.010
330.2,0.010
330.4,0.010
330.6,0.010
330.8,0.010
331.0,0.010
331.2,0.010
331.4,0.010
331.6,0.010
331.8,0.010
332.0,0.010
332.2,0.009
332.4,0.009
332.6,0.009
332.8,0.009
333.0,0.009
333.2,0.009
333.4,0.009
333.6,0.009
333.8,0.009
334.0,0.009
334.2,0.009
334.4,0.009
334.6,0.009
334.8,0.009
335.0,0.009
335.2,0.009
335.4,0.009
335.6,0.009
335.8,0.009
336.0,0.009
336.2,0.009
336.4,0.009
336.6,0.009
336.8,0.009
337.0,0.009
337.2,0.009
337.4,0.008
337.6,0.008
337.8,0.008
338.0,0.008
338.2,0.008
338.4,0.008
338.6,0.008
338.8,0.008
339.0,0.008
339.2,0.008
339.4,0.008
339.6,0.008
339.8,0.008
340.0,0.008
340.2,0.008
340.4,0.008
340.6,0.008
340.8,0.008
341.0,0.008
341.2,0.008
341.4,0.008
341.6,0.008
341.8,0.008
342.0,0.008
342.2,0.008
342.4,0.007
342.6,0.007
342.8,0.007
343.0,0.007
343.2,0.007
343.4,0.007
343.6,0.007
343.8,0.007
344.0,0.007
344.2,0.007
344.4,0.007
344.6,0.007
344.8,0.007
345.0,0.007
345.2,0.007
345.4,0.007
345.6,0.007
345.8,0.007
346.0,0.007
346.2,0.007
346.4,0.007
346.6,0.007
346.8,0.007
347.0,0.007
347.2,0.007
347.4,0.007
347.6,0.007
347.8,0.006
348.0,0.006
348.2,0.006
348.4,0.006
348.6,0.006
348.8,0.006
349.0,0.006
349.2,0.006
349.4,0.006
349.6,0.006
349.8,0.006
350.0,0.006
350.2,0.006
350.4,0.006
350.6,0.006
350.8,0.006
351.0,0.006
351.2,0.006
351.4,0.006
351.6,0.006
351.8,0.006
352.0,0.006
352.2,0.006
352.4,0.006
352.6,0.005
352.8,0.005
353.0,0.005
353.2,0.005
353.4,0.005
353.6,0.005
353.8,0.005
354.0,0.005
354.2,0.005
354.4,0.005
354.6,0.005
354.8,0.005
355.0,0.005
355.2,0.005
355.4,0.005
355.6,0.005
355.8,0.005
356.0,0.005
356.2,0.005
356.4,0.005
356.6,0.005
356.8,0.005
357.0,0.005
357.2,0.005
357.4,0.005
357.6,0.005
357.8,0.005
358.0,0.005
358.2,0.005
358.4,0.004
358.6,0.004
358.8,0.004
359.0,0.004
359.2,0.004
359.4,0.004
359.6,0.004
359.8,0.004
360.0,0.004
360.2,0.004
360.4,0.004
360.6,0.004
360.8,0.004
361.0,0.004
361.2,0.004
361.4,0.004
361.6,0.004
361.8,0.004
362.0,0.004
362.2,0.004
362.4,0.004
362.6,0.004
362.8,0.004
363.0,0.004
363.2,0.004
363.4,0.004
363.6,0.004
363.8,0.004
364.0,0.004
364.2,0.004
364.4,0.003
364.6,0.003
364.8,0.003
365.0,0.003
365.2,0.003
365.4,0.003
365.6,0.003
365.8,0.003
366.0,0.003
366.2,0.003
366.4,0.003
366.6,0.003
366.8,0.003
367.0,0.003
367.2,0.003
367.4,0.003
367.6,0.003
367.8,0.003
368.0,0.003
368.2,0.003
368.4,0.003
368.6,0.003
368.8,0.003
369.0,0.003
369.2,0.003
369.4,0.003
369.6,0.003
369.8,0.003
370.0,0.003
370.2,0.003
370.4,0.003
370.6,0.003
370.8,0.003
371.0,0.003
371.2,0.003
371.4,0.003
371.6,0.003
371.8,0.002
372.0,0.002
372.2,0.002
372.4,0.002
372.6,0.002
372.8,0.002
373.0,0.002
373.2,0.002
373.4,0.002
373.6,0.002
373.8,0.002
374.0,0.002
374.2,0.002
374.4,0.002
374.6,0.002
374.8,0.002
375.0,0.002
375.2,0.002
375.4,0.002
375.6,0.002
375.8,0.002
376.0,0.002
376.2,0.002
376.4,0.002
376.6,0.002
376.8,0.002
377.0,0.002
377.2,0.002
377.4,0.002
377.6,0.002
377.8,0.002
378.0,0.002
378.2,0.002
378.4,0.002
378.6,0.002
378.8,0.002
379.0,0.002
379.2,0.002
379.4,0.002
379.6,0.002
379.8,0.002
380.0,0.002
380.2,0.002
380.4,0.002
380.6,0.002
380.8,0.002
381.0,0.002
381.2,0.002
381.4,0.002
381.6,0.001
381.8,0.002
382.0,0.002
382.2,0.002
382.4,0.002
382.6,0.002
382.8,0.001
383.0,0.001
383.2,0.001
383.4,0.001
383.6,0.001
383.8,0.001
384.0,0.001
384.2,0.001
384.4,0.001
384.6,0.001
384.8,0.001
385.0,0.001
385.2,0.001
385.4,0.001
385.6,0.001
385.8,0.001
386.0,0.001
386.2,0.001
386.4,0.001
386.6,0.001
386.8,0.001
387.0,0.001
387.2,0.001
387.4,0.001
387.6,0.001
387.8,0.001
388.0,0.001
388.2,0.001
388.4,0.001
388.6,0.001
388.8,0.001
389.0,0.001
389.2,0.001
389.4,0.001
389.6,0.001
389.8,0.001
390.0,0.001
390.2,0.001
390.4,0.001
390.6,0.001
390.8,0.001
391.0,0.001
391.2,0.001
391.4,0.001
391.6,0.001
391.8,0.001
392.0,0.001
392.2,0.001
392.4,0.001
392.6,0.001
392.8,0.001
393.0,0.001
393.2,0.001
393.4,0.001
393.6,0.001
393.8,0.001
394.0,0.001
394.2,0.001
394.4,0.001
394.6,0.001
394.8,0.001
395.0,0.001
395.2,0.001
395.4,0.001
395.6,0.001
395.8,0.001
396.0,0.001
396.2,0.001
396.4,0.001
396.6,0.001
396.8,0.001
397.0,0.001
397.2,0.001
397.4,0.001
397.6,0.001
397.8,0.001
398.0,0.001
398.2,0.001
398.4,0.001
398.6,0.001
398.8,0.001
399.0,0.001
399.2,0.001
399.4,0.001
399.6,0.001
399.8,0.001
400.0,0.001
400.2,0.001
400.4,0.001
400.6,0.001
400.8,0.001
401.0,0.001
401.2,0.001
401.4,0.001
401.6,0.001
401.8,0.001
402.0,0.001
402.2,0.001
402.4,0.001
402.6,0.001
402.8,0.001
403.0,0.001
403.2,0.001
403.4,0.001
403.6,0.001
403.8,0.001
404.0,0.001
404.2,0.001
404.4,0.001
404.6,0.001
404.8,0.001
405.0,0.001
405.2,0.001
405.4,0.001
405.6,0.001
405.8,0.001
406.0,0.001
406.2,0.001
406.4,0.001
406.6,0.001
406.8,0.001
407.0,0.001
407.2,0.001
407.4,0.001
407.6,0.001
407.8,0.001
408.0,0.001
408.2,0.001
408.4,0.001
408.6,0.001
408.8,0.001
409.0,0.001
409.2,0.001
409.4,0.001
409.6,0.001
409.8,0.001
410.0,0.001
410.2,0.001
410.4,0.001
410.6,0.001
410.8,0.001
411.0,0.001
411.2,0.001
411.4,0.001
411.6,0.001
411.8,0.001
412.0,0.001
412.2,0.001
412.4,0.001
412.6,0.001
412.8,0.001
413.0,0.001
413.2,0.001
413.4,0.001
413.6,0.001
413.8,0.001
414.0,0.001
414.2,0.001
414.4,0.001
414.6,0.001
414.8,0.001
415.0,0.001
415.2,0.001
415.4,0.001
415.6,0.001
415.8,0.001
416.0,0.001
416.2,0.001
416.4,0.001
416.6,0.001
416.8,0.001
417.0,0.001
417.2,0.001
417.4,0.001
417.6,0.001
417.8,0.001
418.0,0.001
418.2,0.001
418.4,0.001
418.6,0.001
418.8,0.001
419.0,0.001
419.2,0.001
419.4,0.001
419.6,0.001
419.8,0.001
420.0,0.001
420.2,0.001
420.4,0.001
420.6,0.001
420.8,0.001
421.0,0.001
421.2,0.001
421.4,0.001
421.6,0.001
421.8,0.001
422.0,0.001
422.2,0.001
422.4,0.001
422.6,0.001
422.8,0.001
423.0,0.001
423.2,0.001
423.4,0.001
423.6,0.001
423.8,0.001
424.0,0.001
424.2,0.001
424.4,0.001
424.6,0.001
424.8,0.001
425.0,0.001
425.2,0.001
425.4,0.001
425.6,0.001
425.8,0.001
426.0,0.001
426.2,0.001
426.4,0.001
426.6,0.001
426.8,0.001
427.0,0.001
427.2,0.001
427.4,0.001
427.6,0.001
427.8,0.001
428.0,0.001
428.2,0.001
428.4,0.001
428.6,0.001
428.8,0.001
429.0,0.001
429.2,0.001
429.4,0.001
429.6,0.001
429.8,0.001
430.0,0.001
430.2,0.001
430.4,0.001
430.6,0.001
430.8,0.001
431.0,0.001
431.2,0.001
431.4,0.001
431.6,0.001
431.8,0.001
432.0,0.001
432.2,0.001
432.4,0.001
432.6,0.001
432.8,0.001
433.0,0.001
433.2,0.001
433.4,0.001
433.6,0.001
433.8,0.001
434.0,0.001
434.2,0.001
434.4,0.001
434.6,0.001
434.8,0.001
435.0,0.001
435.2,0.001
435.4,0.001
435.6,0.001
435.8,0.001
436.0,0.001
436.2,0.001
436.4,0.001
436.6,0.001
436.8,0.001
437.0,0.001
437.2,0.001
437.4,0.001
437.6,0.001
437.8,0.001
438.0,0.001
438.2,0.001
438.4,0.001
438.6,0.001
438.8,0.001
439.0,0.001
439.2,0.001
439.4,0.001
439.6,0.001
439.8,0.001
440.0,0.001
440.2,0.001
440.4,0.001
440.6,0.001
440.8,0.001
441.0,0.001
441.2,0.001
441.4,0.001
441.6,0.001
441.8,0.001
442.0,0.001
442.2,0.001
442.4,0.001
442.6,0.001
442.8,0.001
443.0,0.001
443.2,0.001
443.4,0.001
443.6,0.001
443.8,0.001
444.0,0.001
444.2,0.001
444.4,0.001
444.6,0.001
444.8,0.001
445.0,0.001
445.2,0.001
445.4,0.001
445.6,0.001
445.8,0.001
446.0,0.001
446.2,0.001
446.4,0.001
446.6,0.001
446.8,0.001
447.0,0.001
447.2,0.001
447.4,0.001
447.6,0.001
447.8,0.001
448.0,0.001
448.2,0.001
448.4,0.001
448.6,0.001
448.8,0.001
449.0,0.001
449.2,0.001
449.4,0.001
449.6,0.001
449.8,0.001
450.0,0.001
450.2,0.001
450.4,0.001
450.6,0.001
450.8,0.001
451.0,0.001
451.2,0.001
451.4,0.001
451.6,0.001
451.8,0.001
452.0,0.001
452.2,0.001
452.4,0.001
452.6,0.001
452.8,0.001
453.0,0.001
453.2,0.001
453.4,0.001
453.6,0.001
453.8,0.001
454.0,0.001
454.2,0.001
454.4,0.001
454.6,0.001
454.8,0.001
455.0,0.001
455.2,0.001
455.4,0.001
455.6,0.001
455.8,0.001
456.0,0.001
456.2,0.001
456.4,0.001
456.6,0.001
456.8,0.001
457.0,0.001
457.2,0.001
457.4,0.001
457.6,0.001
457.8,0.001
458.0,0.001
458.2,0.001
458.4,0.001
458.6,0.001
458.8,0.001
459.0,0.001
459.2,0.001
459.4,0.001
459.6,0.001
459.8,0.001
460.0,0.001
460.2,0.001
460.4,0.001
460.6,0.001
460.8,0.001
461.0,0.001
461.2,0.001
461.4,0.001
461.6,0.001
461.8,0.001
462.0,0.001
462.2,0.001
462.4,0.001
462.6,0.001
462.8,0.001
463.0,0.001
463.2,0.001
463.4,0.001
463.6,0.001
463.8,0.001
464.0,0.001
464.2,0.001
464.4,0.001
464.6,0.001
464.8,0.001
465.0,0.001
465.2,0.001
465.4,0.001
465.6,0.001
465.8,0.001
466.0,0.001
466.2,0.001
466.4,0.001
466.6,0.001
466.8,0.001
467.0,0.001
467.2,0.001
467.4,0.001
467.6,0.001
467.8,0.001
468.0,0.001
468.2,0.001
468.4,0.001
468.6,0.001
468.8,0.001
469.0,0.001
469.2,0.001
469.4,0.001
469.6,0.001
469.8,0.001
470.0,0.001
470.2,0.001
470.4,0.001
470.6,0.001
470.8,0.001
471.0,0.001
471.2,0.001
471.4,0.001
471.6,0.001
471.8,0.001
472.0,0.001
472.2,0.001
472.4,0.001
472.6,0.001
472.8,0.001
473.0,0.001
473.2,0.001
473.4,0.001
473.6,0.001
473.8,0.001
474.0,0.001
474.2,0.001
474.4,0.001
474.6,0.001
474.8,0.001
475.0,0.001
475.2,0.001
475.4,0.001
475.6,0.001
475.8,0.001
476.0,0.001
476.2,0.001
476.4,0.001
476.6,0.001
476.8,0.001
477.0,0.001
477.2,0.001
477.4,0.001
477.6,0.001
477.8,0.001
478.0,0.001
478.2,0.001
478.4,0.001
478.6,0.001
478.8,0.001
479.0,0.001
479.2,0.001
479.4,0.001
479.6,0.001
479.8,0.001
480.0,0.001
480.2,0.001
480.4,0.001
480.6,0.001
480.8,0.001
481.0,0.001
481.2,0.001
481.4,0.001
481.6,0.001
481.8,0.001
482.0,0.001
482.2,0.001
482.4,0.001
482.6,0.001
482.8,0.001
483.0,0.001
483.2,0.001
483.4,0.001
483.6,0.001
483.8,0.001
484.0,0.001
484.2,0.001
484.4,0.001
484.6,0.001
484.8,0.001
485.0,0.001
485.2,0.001
485.4,0.001
485.6,0.001
485.8,0.001
486.0,0.001
486.2,0.001
486.4,0.001
486.6,0.001
486.8,0.001
487.0,0.001
487.2,0.001
487.4,0.001
487.6,0.001
487.8,0.001
488.0,0.001
488.2,0.001
488.4,0.001
488.6,0.001
488.8,0.001
489.0,0.001
489.2,0.001
489.4,0.001
489.6,0.001
489.8,0.001
490.0,0.001
490.2,0.001
490.4,0.001
490.6,0.001
490.8,0.001
491.0,0.001
491.2,0.001
491.4,0.001
491.6,0.001
491.8,0.001
492.0,0.001
492.2,0.001
492.4,0.001
492.6,0.001
492.8,0.001
493.0,0.001
493.2,0.001
493.4,0.001
493.6,0.001
493.8,0.001
494.0,0.001
494.2,0.001
494.4,0.001
494.6,0.001
494.8,0.001
495.0,0.001
495.2,0.001
495.4,0.001
495.6,0.001
495.8,0.001
496.0,0.001
496.2,0.001
496.4,0.001
496.6,0.001
496.8,0.001
497.0,0.001
497.2,0.001
497.4,0.001
497.6,0.001
497.8,0.001
498.0,0.001
498.2,0.001
498.4,0.001
498.6,0.001
498.8,0.001
499.0,0.001
499.2,0.001
499.4,0.001
499.6,0.001
499.8,0.001
500.0,0.001
